Depth (nm)	Load (µN)
2.522321	2.203796
2.597658	2.206489
2.661293	2.138822
2.61766	        2.147811
2.465772	2.160362
2.566712	2.100672
2.458947	2.118959
2.562147	2.087739
2.593991	2.034526
2.575644	1.989343
2.674918	1.92292
2.637124	1.885524
2.656736	1.804979
2.356937	1.841919
2.521696	1.747873
2.365271	1.727099
2.609171	1.646439
2.52477	1.590269
2.475466	1.530925
2.561655	1.452058
2.448708	1.398029
2.468427	1.317949
2.566344	1.215166
2.515537	1.130625
2.45011	        1.070753
2.379992	1.001917
2.327533	0.927975
2.397648	0.846055
2.388441	0.784173
2.352728	0.692514
2.333437	0.620498
2.436182	0.49819
2.297004	0.425907
2.189213	0.359632
2.115253	0.315741
2.124554	0.251003
2.127654	0.172232
2.231833	0.061794
2.066768	0.015442
2.024022	-0.057464
1.934355	-0.098322
1.970062	-0.179303
1.924137	-0.229376
1.859021	-0.28348
1.902108	-0.349637
1.889742	-0.426327
1.670395	-0.455918
1.71795	-0.515014
1.560794	-0.53511
1.675445	-0.588644
1.724238	-0.668096
1.479524	-0.673401
1.577772	-0.723106
1.552869	-0.771073
1.430891	-0.803519
1.335676	-0.802523
1.509777	-0.888093
1.414699	-0.913888
1.584167	-1.015945
1.339356	-1.019281
1.353128	-1.075203
1.551348	-1.167188
1.228447	-1.162804
1.30776	        -1.231558
1.083309	-1.239963
1.161305	-1.275265
0.949332	-1.282877
0.994633	-1.294265
0.9538	        -1.286164
0.927667	-1.313392
0.916376	-1.334912
0.925988	-1.337128
0.833839	-1.373733
0.69798	-1.345827
0.586077	-1.32426
0.683053	-1.331145
0.681809	-1.34368
0.559536	-1.319054
0.638739	-1.334212
0.611723	-1.328039
0.588426	-1.323241
0.501169	-1.30621
0.69075	-1.3651
0.558326	-1.376036
0.450338	-1.353977
0.565596	-1.379908
0.452803	-1.408257
0.470294	-1.412046
0.415278	-1.40016
0.340277	-1.385071
0.370674	-1.423338
0.383376	-1.451791
0.239584	-1.42306
0.239156	-1.422605
0.290446	-1.432115
0.162205	-1.438363
0.27801	        -1.469155
0.122909	-1.454334
0.250503	-1.480602
0.147689	-1.501931
-0.095975	-1.430701
0.026847	-1.436106
-0.084451	-1.412436
-0.130054	-1.403996
0.032705	-1.435469
-0.036826	-1.429895
-0.021489	-1.454657
-0.17987	-1.453384
-0.148522	-1.458693
-0.267323	-1.434354
-0.247752	-1.436969
-0.290851	-1.408168
-0.257896	-1.377756
-0.342059	-1.386611
-0.343856	-1.360265
-0.41195	-1.346114
-0.402052	-1.348187
-0.275946	-1.373203
-0.345421	-1.390182
-0.257705	-1.434917
-0.43448	-1.399604
-0.610525	-1.364746
-0.679228	-1.333105
-0.566613	-1.371427
-0.584013	-1.322902
-0.697285	-1.287559
-0.67536	-1.291312
-0.49225	-1.328689
-0.727844	-1.324095
-0.787758	-1.269499
-0.918917	-1.242597
-0.773602	-1.266256
-0.709932	-1.284639
-0.721183	-1.281386
-0.731776	-1.278948
-0.774772	-1.276364
-0.809478	-1.286221
-0.693625	-1.344072
-0.917754	-1.300012
-0.956267	-1.292568
-0.904905	-1.303014
-0.919768	-1.317031
-1.04026	-1.289916
-0.926642	-1.348351
-0.815206	-1.375276
-0.915743	-1.409789
-1.088848	-1.374573
-1.068343	-1.378457
-0.970529	-1.438003
-1.189187	-1.409254
-1.131714	-1.421099
-1.43341	-1.36103
-1.228636	-1.401029
-1.374267	-1.373259
-1.434595	-1.343478
-1.439279	-1.306059
-1.492564	-1.29421
-1.399318	-1.311684
-1.337977	-1.324315
-1.375025	-1.316327
-1.290113	-1.362654
-1.555223	-1.335931
-1.514134	-1.343199
-1.551421	-1.336791
-1.502563	-1.345681
-1.633438	-1.319898
-1.594486	-1.327702
-1.587144	-1.328742
-1.69054	-1.3078
-1.832013	-1.281142
-1.905221	-1.244176
-1.77029	-1.23613
-1.577867	-1.304125
-1.741409	-1.296926
-1.738223	-1.296637
-1.755219	-1.300543
-1.895589	-1.305321
-1.825906	-1.327547
-1.963869	-1.308908
-1.906723	-1.321391
-1.729736	-1.355418
-2.039439	-1.302152
-1.929757	-1.327182
-2.029826	-1.347089
-1.925862	-1.370285
-2.141958	-1.326087
-2.200231	-1.314737
-2.224108	-1.310103
-2.238378	-1.272245
-2.293217	-1.241322
-2.186458	-1.262573
-2.212407	-1.257726
-2.255428	-1.25595
-2.34127	-1.231973
-2.493348	-1.20224
-2.238664	-1.252447
-2.344614	-1.231337
-2.344651	-1.244653
-2.277241	-1.295073
-2.478498	-1.25759
-2.61529	-1.229869
-2.582309	-1.190128
-2.508515	-1.197037
-2.600863	-1.17905
-2.475415	-1.213628
-2.590147	-1.225714
-2.502912	-1.246615
-2.52696	-1.246285
-2.655856	-1.228844
-2.768136	-1.198187
-2.715256	-1.207721
-2.623994	-1.226863
-2.612128	-1.287664
-2.657078	-1.27744
-2.793216	-1.250572
-2.782769	-1.303138
-2.875693	-1.291242
-2.958644	-1.27359
-2.847666	-1.295052
-3.013433	-1.262905
-3.036244	-1.228174
-3.046475	-1.219592
-2.984716	-1.253324
-3.145165	-1.190234
-3.11824	-1.185292
-3.065822	-1.194616
-3.178689	-1.171828
-3.101005	-1.18761
-3.028115	-1.238053
-3.231681	-1.208701
-3.078106	-1.246927
-3.187526	-1.226303
-3.280543	-1.208174
-3.395257	-1.185014
-3.226091	-1.218573
-3.279579	-1.230365
-3.372017	-1.266882
-3.353668	-1.269878
-3.342509	-1.272797
-3.379677	-1.264925
-3.212079	-1.330567
-3.524797	-1.287828
-3.559464	-1.280396
-3.585494	-1.274751
-3.592474	-1.273201
-3.743215	-1.22044
-3.597358	-1.219299
-3.647512	-1.213214
-3.617429	-1.259655
-3.668301	-1.257052
-3.903579	-1.191336
-3.824185	-1.173913
-3.814565	-1.17561
-3.825507	-1.173834
-4.072365	-1.124169
-3.72695	-1.151483
-3.640261	-1.209365
-3.729344	-1.232178
-3.820385	-1.225548
-3.994006	-1.190821
-3.917568	-1.205399
-3.871639	-1.232488
-3.921708	-1.260932
-3.834721	-1.278518
-4.121639	-1.26066
-4.24134	-1.198062
-4.22591	-1.200438
-4.152179	-1.214352
-4.213022	-1.202113
-4.332793	-1.178629
-4.222995	-1.146797
-4.131801	-1.213953
-4.108932	-1.221902
-4.397017	-1.163587
-4.508496	-1.141838
-4.527015	-1.100559
-4.455047	-1.097598
-4.381523	-1.111687
-4.518023	-1.084006
-4.467798	-1.093697
-4.44887	-1.096949
-4.562873	-1.074846
-4.436794	-1.098834
-4.416021	-1.102797
-4.55704	-1.126314
-4.526792	-1.135995
-4.374519	-1.166995
-4.52798	-1.185956
-4.653145	-1.165912
-4.675072	-1.161913
-4.560496	-1.183454
-4.78289	-1.14059
-4.67795	-1.180085
-4.724621	-1.209139
-4.891263	-1.177112
-4.796435	-1.194734
-4.897459	-1.174369
-4.965873	-1.160803
-4.847545	-1.183742
-4.912147	-1.171088
-4.991362	-1.154262
-4.872437	-1.179107
-4.719571	-1.26018
-5.031212	-1.228126
-5.026222	-1.244971
-5.001403	-1.261756
-5.188334	-1.224572
-5.068687	-1.248386
-5.137821	-1.234653
-5.284956	-1.205479
-5.247489	-1.211942
-5.327378	-1.196188
-5.340334	-1.193885
-5.248233	-1.212838
-5.426079	-1.175815
-5.271362	-1.194179
-5.444268	-1.171814
-5.555675	-1.124095
-5.598048	-1.084309
-5.578255	-1.073637
-5.766144	-1.008085
-5.520907	-1.045815
-5.62989	-1.024065
-5.519823	-1.04491
-5.572299	-1.034886
-5.513054	-1.046511
-5.577693	-1.033496
-5.644713	-1.019972
-5.600902	-1.028407
-5.669195	-1.063178
-5.678284	-1.065217
-5.670498	-1.066893
-5.78169	-1.045613
-5.857652	-1.028891
-5.678334	-1.063298
-5.846995	-1.030838
-5.835492	-1.068858
-5.790642	-1.083538
-5.879065	-1.080431
-5.648857	-1.143872
-5.927841	-1.126081
-5.885232	-1.134304
-5.885826	-1.164744
-5.921933	-1.184495
-6.034994	-1.162383
-5.930485	-1.213511
-6.030398	-1.215173
-6.213113	-1.178069
-6.276223	-1.16617
-6.353854	-1.122073
-6.261109	-1.117065
-6.260019	-1.116729
-6.355247	-1.098313
-6.240437	-1.120651
-6.396153	-1.08972
-6.230215	-1.13299
-6.346917	-1.151719
-6.421757	-1.135948
-6.621522	-1.084929
-6.379189	-1.091841
-6.51424	-1.067198
-6.407479	-1.106398
-6.43415	-1.131785
-6.481375	-1.122964
-6.557148	-1.107051
-6.427443	-1.159395
-6.559033	-1.163567
-6.713303	-1.132821
-6.851221	-1.102014
-6.832748	-1.05191
-6.865327	-1.045878
-6.642758	-1.090014
-6.720588	-1.074998
-6.761961	-1.065481
-7.050559	-1.028733
-6.942557	-1.028966
-6.841879	-1.049436
-6.830007	-1.050049
-6.873039	-1.041666
-6.774773	-1.086284
-6.852198	-1.102017
-7.137549	-1.046548
-7.03195	-1.066598
-7.070303	-1.058162
-7.126786	-1.048223
-7.101273	-1.052356
-7.093069	-1.053738
-7.050486	-1.062321
-7.056164	-1.060266
-7.08408	-1.107479
-7.275953	-1.071544
-7.275538	-1.070047
-7.405402	-1.044108
-7.313311	-1.061973
-7.342032	-1.056452
-7.290391	-1.066489
-7.407912	-1.044055
-7.560428	-1.007953
-7.482165	-0.973496
-7.293321	-1.020687
-7.469679	-1.017534
	
-7.360202	-1.049354
-7.450005	-0.992256
-7.506419	-0.94112
-7.577416	-0.848705
-7.529687	-0.755137
-7.282223	-0.728259
-7.241079	-0.686573
-7.24356	-0.63023
-7.0782	        -0.607448
-6.948374	-0.631902
-6.998279	-0.598328
-6.901737	-0.583393
-6.849551	-0.593416
-6.822684	-0.551168
-6.717075	-0.566756
-6.733166	-0.558075
-6.680359	-0.495175
-6.635727	-0.487591
-6.663301	-0.406571
-6.462038	-0.422929
-6.545364	-0.372292
-6.284764	-0.404
-6.363765	-0.389097
-6.259635	-0.408203
-6.264584	-0.377519
-6.122507	-0.375521
-6.16029	-0.367949
-5.962663	-0.40627
-6.02324	-0.394729
-6.122788	-0.362084
-6.065252	-0.317406
-6.066335	-0.242918
-5.941861	-0.221927
-5.785968	-0.215061
-5.703934	-0.229884
-5.710663	-0.203521
-5.697156	-0.174706
-5.602719	-0.139438
-5.452503	-0.164604
-5.474708	-0.159972
-5.385901	-0.17753
-5.409697	-0.173026
-5.372464	-0.128148
-5.301667	-0.139508
-5.239918	-0.10459
-5.20707	-0.099222
-5.157817	-0.10171
-5.03418	-0.077162
-5.050511	-0.073401
-4.964124	-0.090222
-4.979605	-0.051394
-4.926536	-0.039447
-4.857156	-0.049339
-4.78715	-0.01346
-4.743253	-0.02261
-4.749397	0.029228
-4.569149	0.012642
-4.461998	-0.008343
-4.56498	0.012513
-4.608751	0.06372
-4.508252	0.095019
-4.467688	0.11723
-4.454197	0.17201
-4.219369	0.137341
-4.15906	0.150204
-4.134243	0.109849
-4.050042	0.084539
-4.098922	0.137618
-3.964429	0.127345
-3.904013	0.115371
-3.958357	0.126615
-3.912349	0.137392
-3.870194	0.159371
-3.760663	0.144704
-3.802622	0.167964
-3.771758	0.231646
-3.672871	0.240859
-3.588557	0.225003
-3.492483	0.264188
-3.449508	0.257001
-3.416391	0.251007
-3.39501	0.247349
-3.342494	0.277595
-3.285489	0.283738
-3.158193	0.25883
-3.317863	0.312891
-3.278709	0.378082
-3.213646	0.422333
-3.035944	0.42574
-2.969532	0.452911
-3.034353	0.479642
-2.988163	0.515322
-2.852552	0.541709
-2.763147	0.524751
-2.726905	0.517798
-2.668237	0.555229
-2.508509	0.543597
-2.562118	0.494549
-2.573101	0.563533
-2.600132	0.592199
-2.530896	0.650226
-2.387903	0.646222
-2.295806	0.658027
-2.140537	0.598248
-2.096073	0.590276
-2.136626	0.598102
-2.1033	        0.591321
-1.993641	0.570491
-2.039607	0.580264
-1.998746	0.615867
-1.914617	0.610687
-1.906535	0.60882
-1.951859	0.663659
-1.890806	0.704935
-1.905197	0.768447
-1.930791	0.854022
-1.69308	0.866519
-1.811351	0.972859
-1.59425	1.000123
-1.559199	1.010737
-1.360061	1.028383
-1.375476	1.032437
-1.279181	1.013691
-1.398919	1.063939
-1.459812	1.131759
-1.261727	1.178969
-1.204929	1.211026
-1.000035	1.19477
-1.065807	1.208442
-0.892119	1.181353
-0.959699	1.205965
-1.033132	1.271346
-1.07791	1.36736
-0.888664	1.408308
-0.888545	1.464491
-0.769811	1.506943
-0.6376	        1.526041
-0.608417	1.528585
-0.634841	1.584811
-0.468738	1.564054
-0.529784	1.619878
-0.377653	1.615148
-0.436289	1.678932
-0.483144	1.760082
-0.227103	1.755369
-0.301153	1.807185
-0.173536	1.813627
-0.135647	1.854825
-0.139409	1.90393
-0.112658	1.974281
-0.013484	2.009074
0	        2.175908
	
0.096994	3.618045
0.550671	5.847918
1.062567	9.131819
1.492669	12.939056
2.057463	16.959646
2.733276	21.085923
3.320943	25.269252
4.050202	29.443969
4.441081	33.631714
4.958945	37.784396
5.285073	41.925842
5.987075	46.033962
6.409353	50.158248
6.910354	54.258179
7.411074	58.36166
7.854454	62.445154
8.379909	66.512362
8.888927	70.615761
9.35975	        74.693654
10.155061	78.70723
10.5981	        82.802114
11.206967	86.870617
11.641919	90.92418
12.327972	94.962468
13.081184	99.015166
13.709934	103.068292
14.354091	107.118068
14.989723	111.152213
15.54027	115.224704
16.273139	119.229601
17.230782	123.255249
17.683095	127.339892
18.33949	131.373082
18.819587	135.415847
19.457492	139.43594
20.264653	143.4529
21.115064	147.489936
21.833291	151.522308
22.300924	155.570464
22.855769	159.598265
23.863293	163.59198
24.768528	167.62646
25.44439	171.673284
26.40917	175.665513
27.213541	179.725066
27.943039	183.73244
29.023548	187.756119
29.409403	191.814124
30.615358	195.766125
31.88184	199.797977
32.741501	203.858063
33.421379	207.898093
34.018164	211.916238
34.85936	215.905912
36.291492	219.898618
37.047049	223.965526
37.598965	227.997181
38.785621	231.961963
39.6239	        236.011806
40.124086	240.06722
41.004562	244.04096
42.067474	248.059636
43.257924	252.056556
44.497851	256.069963
45.830423	260.076188
48.44743	263.984269
50.961388	268.034249
51.807239	272.173401
52.143828	276.214849
53.709564	280.106618
55.990944	284.132162
58.07174	288.158875
58.829301	292.252176
59.172587	296.286495
60.139217	300.247985
61.008586	304.290976
61.927816	308.290432
63.045526	312.278081
63.836554	316.342342
64.248434	320.355471
65.236503	324.291259
67.674371	328.308697
68.406059	332.370414
70.999453	336.275772
71.917553	340.397896
72.682542	344.406287
73.502118	348.426581
75.293593	352.340375
76.958077	356.421765
78.222791	360.415493
79.36173	364.470818
80.41897	368.454497
80.628021	372.529014
80.926066	376.539973
82.94123	380.448426
84.066556	384.507172
85.249849	388.508937
85.898689	392.569514
86.330199	396.579283
86.925343	400.563423
87.508982	404.586855
89.591879	408.483463
92.440539	412.479341
94.278654	416.569363
95.364254	420.606171
96.210081	424.613779
96.59245	428.640548
98.380167	432.574405
99.537474	436.651126
100.814985	440.626701
102.192287	444.632995
103.201507	448.679569
103.881132	452.687332
104.131996	456.712613
104.987797	460.703509
105.666429	464.724992
106.03657	468.735023
106.343214	472.75007
106.868067	476.737923
107.673018	480.733622
108.35899	484.745499
108.669754	488.794209
110.40586	492.683508
111.868844	496.780681
112.041943	500.805565
112.744879	504.785071
114.719986	508.721848
116.874387	512.760451
117.2129	516.855363
119.020013	520.761043
119.653571	524.865496
120.241939	528.822156
121.847645	532.821086
122.941631	536.828487
124.13877	540.839834
125.125587	544.85257
125.887974	548.89333
126.407277	552.884198
127.07103	556.903705
127.28724	560.916392
127.610056	564.934312
128.172555	568.910556
129.329139	572.867322
130.892796	576.904161
132.474485	580.895873
133.355955	584.941408
133.722479	588.954712
134.895633	592.915966
135.638404	596.983428
136.269868	600.95501
137.420436	604.94967
138.303745	608.960588
138.60182	613.019753
139.61116	616.963872
140.603219	621.00022
140.819068	625.02464
141.51109	628.995096
143.837949	632.95938
145.003186	637.018197
145.424473	641.023423
146.17306	645.047086
146.3937	649.04814
146.768171	653.062232
147.059423	657.067153
147.383648	661.077242
148.976043	664.996936
150.602786	669.053128
150.974798	673.079874
151.514809	677.057224
154.018528	681.037335
154.699248	685.10565
155.797373	689.078346
156.499078	693.096641
156.848115	697.133989
157.562246	701.093162
159.600328	705.068412
160.888116	709.112948
161.249553	713.151646
163.435013	717.062315
164.44093	721.139873
164.711328	725.163366
165.163968	729.147113
165.449792	733.179099
165.867544	737.165854
166.016583	741.192023
166.990284	745.112802
168.602229	749.191921
168.885399	753.201304
169.08884	757.190766
169.766777	761.191335
171.410162	765.140094
172.755507	769.2124
172.945959	773.231712
173.370078	777.216175
173.66264	781.234337
173.756519	785.240169
175.038693	789.168795
178.470308	793.169719
179.663768	797.223073
180.114554	801.250553
180.30562	805.282492
180.932375	809.237659
181.753978	813.254694
182.4335	817.260755
182.512406	821.26776
183.633633	825.26342
184.651716	829.272366
185.553001	833.288733
185.944496	837.288459
186.316905	841.295293
186.677408	845.303985
186.994497	849.316179
188.184679	853.253906
190.44773	857.27458
191.118732	861.330486
192.017247	865.303109
192.688924	869.318494
193.501745	873.328372
193.94143	877.334799
194.000445	881.360504
194.927169	885.331783
195.367415	889.335951
196.142458	893.352856
196.934952	897.341712
197.11213	901.394027
197.471824	905.371661
198.612701	909.353117
199.091193	913.386955
199.33231	917.378994
199.489117	921.409292
200.052879	925.378263
200.420358	929.394186
201.816002	933.372381
202.416201	937.395866
202.71146	941.418284
203.218768	945.417438
203.519279	949.415331
203.653035	953.43695
203.828345	957.429565
203.858111	961.425485
204.360579	965.447869
204.497996	969.43785
204.811876	973.427446
206.190045	977.4297
206.340131	981.448171
206.484971	985.480801
206.814415	989.461202
207.148794	993.458685
209.635965	997.406827
210.438708	1001.471964
210.769182	1005.482527
210.865397	1009.496863
210.911011	1013.480761
211.925694	1017.466796
212.429359	1021.483638
212.840162	1025.502684
213.11936	1029.503416
213.216658	1033.509765
213.874172	1037.485347
214.817248	1041.501772
215.243212	1045.513386
215.303737	1049.533346
215.681894	1053.52303
215.98824	1057.522854
216.375972	1061.528545
216.575921	1065.533663
216.543527	1069.55877
217.018026	1073.522214
218.190239	1077.540165
218.42724	1081.563557
218.916918	1085.537802
219.122219	1089.557776
219.45739	1093.580424
220.162536	1097.543839
221.0174	1101.566031
221.322414	1105.576513
221.702595	1109.55754
222.660622	1113.572808
223.284939	1117.581781
224.020516	1121.574479
224.254241	1125.605767
224.627203	1129.592925
224.890119	1133.585192
225.251178	1137.613527
225.627933	1141.604578
226.337161	1145.596463
226.473312	1149.627056
226.669335	1153.604301
226.727237	1157.631117
227.316904	1161.620634
228.097601	1165.627524
228.357919	1169.642955
228.842978	1173.623371
229.061124	1177.636928
229.130303	1181.66266
229.218164	1185.64342
229.772601	1189.637542
230.097419	1193.662555
230.667503	1197.643881
231.1308	1201.644215
231.540359	1205.676157
232.536209	1209.65694
233.054121	1213.662142
233.637218	1217.649728
235.646705	1221.654087
236.166837	1225.67377
236.590516	1229.696317
236.882836	1233.682682
237.61317	1237.680564
237.673593	1241.702439
238.300666	1245.684062
238.536328	1249.712196
239.027669	1253.710413
239.789517	1257.705759
240.303744	1261.710666
240.591173	1265.721782
241.022199	1269.711811
241.335558	1273.726788
241.610294	1277.729385
241.656127	1281.740659
241.70234	1285.737969
242.267268	1289.727747
243.815987	1293.693556
244.968444	1297.749274
245.256594	1301.75252
245.606677	1305.738153
246.389375	1309.752858
247.027933	1313.751988
247.659656	1317.749513
248.121477	1321.767873
248.352373	1325.763114
248.854773	1329.768206
249.184583	1333.775091
249.165396	1337.78144
249.563639	1341.771889
249.733565	1345.784763
250.757055	1349.793534
251.588909	1353.777871
252.026408	1357.786431
252.449063	1361.813187
252.609761	1365.794558
253.111095	1369.793916
253.533869	1373.813073
253.938489	1377.813494
254.15598	1381.812642
254.516007	1385.815635
254.752568	1389.808973
255.90699	1393.803977
255.998637	1397.84747
256.472908	1401.826635
256.764828	1405.818089
257.863785	1409.834277
258.518535	1413.831699
258.979788	1417.838999
259.386114	1421.856885
259.965023	1425.835207
260.293302	1429.846766
261.18431	1433.832411
262.181971	1437.859839
262.682165	1441.845533
263.04429	1445.887868
263.344006	1449.86582
263.63349	1453.874243
263.767423	1457.873001
263.938837	1461.887929
264.099892	1465.878843
264.230063	1469.887369
264.367799	1473.895225
265.117636	1477.879934
266.735696	1481.871705
268.052662	1485.897325
268.785249	1489.883035
269.264059	1493.898889
269.381895	1497.924183
269.990818	1501.894027
270.713328	1505.906813
270.921784	1509.922754
271.255473	1513.9213
271.598664	1517.915827
271.784675	1521.914584
271.710183	1525.945162
272.093797	1529.930226
272.303822	1533.937272
273.213127	1537.917835
274.505708	1541.930246
274.982431	1545.935465
275.262155	1549.961596
275.71272	1553.942459
275.951248	1557.954406
276.887844	1561.943229
277.93463	1565.950892
278.476543	1569.968577
278.648861	1573.954946
279.084833	1577.982876
279.775644	1581.955207
280.482972	1585.962159
280.850248	1589.989812
281.302557	1593.959403
281.798612	1597.983772
282.524736	1601.996259
282.843073	1605.981345
283.14831	1609.997785
283.266618	1613.986395
283.582204	1618.005655
283.965546	1622.000939
283.850876	1625.991846
284.336604	1630.022198
285.249705	1634.00641
285.64765	1638.007581
285.585871	1642.023993
285.88812	1646.016709
286.086082	1650.014026
286.249214	1654.019375
286.900564	1658.066079
288.894387	1662.016778
289.886953	1666.02434
290.400397	1670.049589
290.795823	1674.023593
291.421733	1678.039602
291.677119	1682.044752
292.126969	1686.0551
